# Break point table for Janis RO600 thermometer above 10K
# From Blue ADR 3 binder
#T[K]	R[Ohm]
10.00	1178.49
10.50	1171.23
11.00	1164.61
11.50	1158.55
12.00	1152.97
12.50	1147.82
13.00	1143.05
13.50	1138.63
14.00	1134.51
14.50	1130.66
15.00	1127.06
15.50	1123.69
16.00	1120.53
16.50	1117.55
17.00	1114.74
17.50	1112.08
18.00	1109.57
18.50	1107.19
19.00	1104.94
19.50	1102.79
20.00	1100.75
